
Microphone Calibration File, (10/16/99)
(F10.5,F10.4,F10.4,F10.5)
Probe mic #xxxxxx, preamp gain  xxxxx
Field mic #xxxxxx, sens=  xxxxx mV/Pa
      Freq       SPL     V-RMS Phas(/PI)
    0.0010  124.0000  -12.2530         0
    0.0011  124.0000  -12.0090         0
    0.0011  124.0000  -11.7540         0
    0.0012  124.0000  -11.4870         0
    0.0013  124.0000  -11.2120         0
    0.0013  124.0000  -10.9420         0
    0.0014  124.0000  -10.6850         0
    0.0015  124.0000  -10.4500         0
    0.0016  124.0000  -10.2290         0
    0.0017  124.0000  -10.0190         0
    0.0018  124.0000   -9.8170         0
    0.0019  124.0000   -9.6260         0
    0.0020  124.0000   -9.4490         0
    0.0021  124.0000   -9.2880         0
    0.0022  124.0000   -9.1410         0
    0.0024  124.0000   -9.0080         0
    0.0025  124.0000   -8.8820         0
    0.0027  124.0000   -8.7680         0
    0.0028  124.0000   -8.6660         0
    0.0030  124.0000   -8.5730         0
    0.0032  124.0000   -8.4830         0
    0.0034  124.0000   -8.3980         0
    0.0036  124.0000   -8.3190         0
    0.0038  124.0000   -8.2480         0
    0.0040  124.0000   -8.1830         0
    0.0042  124.0000   -8.1280         0
    0.0045  124.0000   -8.0840         0
    0.0047  124.0000   -8.0480         0
    0.0050  124.0000   -8.0150         0
    0.0053  124.0000   -7.9780         0
    0.0056  124.0000   -7.9450         0
    0.0060  124.0000   -7.9130         0
    0.0063  124.0000   -7.8880         0
    0.0067  124.0000   -7.8630         0
    0.0071  124.0000   -7.8370         0
    0.0075  124.0000   -7.8120         0
    0.0079  124.0000   -7.7910         0
    0.0084  124.0000   -7.7770         0
    0.0089  124.0000   -7.7630         0
    0.0094  124.0000   -7.7480         0
    0.0100  124.0000   -7.7330         0
    0.0106  124.0000   -7.7200         0
    0.0112  124.0000   -7.7130         0
    0.0119  124.0000   -7.7000         0
    0.0126  124.0000   -7.6870         0
    0.0133  124.0000   -7.6730         0
    0.0141  124.0000   -7.6720         0
    0.0150  124.0000   -7.6690         0
    0.0159  124.0000   -7.6620         0
    0.0168  124.0000   -7.6500         0
    0.0178  124.0000   -7.6420         0
    0.0188  124.0000   -7.6410         0
    0.0199  124.0000   -7.6390         0
    0.0211  124.0000   -7.6380         0
    0.0224  124.0000   -7.6330         0
    0.0237  124.0000   -7.6310         0
    0.0251  124.0000   -7.6270         0
    0.0266  124.0000   -7.6240         0
    0.0282  124.0000   -7.6210         0
    0.0299  124.0000   -7.6180         0
    0.0316  124.0000   -7.6150         0
    0.0335  124.0000   -7.6120         0
    0.0355  124.0000   -7.6100         0
    0.0376  124.0000   -7.6090         0
    0.0398  124.0000   -7.6070         0
    0.0422  124.0000   -7.6040         0
    0.0447  124.0000   -7.6010         0
    0.0473  124.0000   -7.5990         0
    0.0501  124.0000   -7.5980         0
    0.0531  124.0000   -7.6000         0
    0.0562  124.0000   -7.6010         0
    0.0596  124.0000   -7.6010         0
    0.0631  124.0000   -7.6010         0
    0.0668  124.0000   -7.6010         0
    0.0708  124.0000   -7.6010         0
    0.0750  124.0000   -7.6010         0
    0.0794  124.0000   -7.6020         0
    0.0841  124.0000   -7.6030         0
    0.0891  124.0000   -7.6040         0
    0.0944  124.0000   -7.6060         0
    0.1000  124.0000   -7.6070         0
    0.1059  124.0000   -7.6100         0
    0.1122  124.0000   -7.6100         0
    0.1189  124.0000   -7.6100         0
    0.1259  124.0000   -7.6110         0
    0.1334  124.0000   -7.6110         0
    0.1412  124.0000   -7.6110         0
    0.1496  124.0000   -7.6110         0
    0.1585  124.0000   -7.6120         0
    0.1679  124.0000   -7.6130         0
    0.1778  124.0000   -7.6140         0
    0.1884  124.0000   -7.6160         0
    0.1995  124.0000   -7.6410         0
    0.2114  124.0000   -7.6320         0
    0.2239  124.0000   -7.6260         0
    0.2371  124.0000   -7.6240         0
    0.2512  124.0000   -7.6230         0
    0.2661  124.0000   -7.6230         0
    0.2818  124.0000   -7.6170         0
    0.2985  124.0000   -7.6160         0
    0.3162  124.0000   -7.6150         0
    0.3350  124.0000   -7.6110         0
    0.3548  124.0000   -7.6100         0
    0.3758  124.0000   -7.6110         0
    0.3981  124.0000   -7.6150         0
    0.4217  124.0000   -7.6170         0
    0.4467  124.0000   -7.6130         0
    0.4732  124.0000   -7.6090         0
    0.5012  124.0000   -7.6020         0
    0.5309  124.0000   -7.5980         0
    0.5623  124.0000   -7.5930         0
    0.5957  124.0000   -7.5930         0
    0.6310  124.0000   -7.5870         0
    0.6683  124.0000   -7.5810         0
    0.7079  124.0000   -7.5780         0
    0.7499  124.0000   -7.5710         0
    0.7943  124.0000   -7.5670         0
    0.8414  124.0000   -7.5580         0
    0.8912  124.0000   -7.5530         0
    0.9441  124.0000   -7.5400         0
    1.0000  124.0000   -7.5310         0
    1.0593  124.0000   -7.5210         0
    1.1220  124.0000   -7.5150         0
    1.1885  124.0000   -7.5080         0
    1.2589  124.0000   -7.4920         0
    1.3335  124.0000   -7.4820         0
    1.4125  124.0000   -7.4700         0
    1.4962  124.0000   -7.4540         0
    1.5849  124.0000   -7.4310         0
    1.6788  124.0000   -7.4040         0
    1.7783  124.0000   -7.3730         0
    1.8837  124.0000   -7.3460         0
    1.9953  124.0000   -7.3120         0
    2.1135  124.0000   -7.2800         0
    2.2387  124.0000   -7.2380         0
    2.3714  124.0000   -7.2020         0
    2.5119  124.0000   -7.1630         0
    2.6607  124.0000   -7.1290         0
    2.8184  124.0000   -7.0830         0
    2.9854  124.0000   -7.0320         0
    3.1623  124.0000   -6.9690         0
    3.3497  124.0000   -6.8950         0
    3.5481  124.0000   -6.8080         0
    3.7584  124.0000   -6.7070         0
    3.9811  124.0000   -6.6020         0
    4.2170  124.0000   -6.4860         0
    4.4668  124.0000   -6.3690         0
    4.7315  124.0000   -6.2390         0
    5.0119  124.0000   -6.1060         0
    5.3088  124.0000   -5.9500         0
    5.6234  124.0000   -5.7650         0
    5.9566  124.0000   -5.5610         0
    6.3096  124.0000   -5.3160         0
    6.6834  124.0000   -5.0790         0
    7.0795  124.0000   -4.8250         0
    7.4989  124.0000   -4.5410         0
    7.9433  124.0000   -4.1990         0
    8.4139  124.0000   -3.8850         0
    8.9125  124.0000   -3.5490         0
    9.4406  124.0000   -3.2040         0
   10.0000  124.0000   -2.8380         0
   10.5925  124.0000   -2.4450         0
   11.2202  124.0000   -2.0210         0
   11.8850  124.0000   -1.5860         0
   12.5893  124.0000   -1.2190         0
   13.3352  124.0000   -0.8550         0
   14.1254  124.0000   -0.4440         0
   14.9624  124.0000   -0.0660         0
   15.8489  124.0000    0.2210         0
   16.7880  124.0000   -1.5790         0
   17.7828  124.0000   -1.4310         0
   18.8365  124.0000   -1.3200         0
   19.9526  124.0000   -1.3960         0
   21.1349  124.0000   -1.5430         0
   22.3872  124.0000   -1.4660         0
   23.7137  124.0000   -0.9970         0
   25.1189  124.0000   -0.9480         0
   26.6073  124.0000   -0.8840         0
   28.1838  124.0000   -0.9930         0
   29.8538  124.0000   -1.0420         0
   31.6228  124.0000   -1.1960         0
   33.4965  124.0000   -1.1790         0
   35.4813  124.0000   -1.1110         0
   37.5837  124.0000   -1.0020         0
   39.8107  124.0000   -1.0530         0
